# Source flux on BL6
# NOTE: this source spectrum is a polynomial fit of the measured flux, WITHOUT detector efficiency correction.
# This way, the detector efficiency correction is already taken into account.
#
WL	n/A/cm^2/MW
WL step=	0.005
WL partition at	4
0.5	0.000366691
0.505	0.000442893
0.51	0.000534301
0.515	0.000643822
0.52	0.000774888
0.525	0.000931556
0.53	0.001118607
0.535	0.001341673
0.54	0.001607383
0.545	0.001923524
0.55	0.002299236
0.555	0.002745235
0.56	0.00327407
0.565	0.003900415
0.57	0.004641416
0.575	0.00551708
0.58	0.006550725
0.585	0.007769499
0.59	0.00920497
0.595	0.010893808
0.6	0.012878557
0.605	0.015208525
0.61	0.017940789
0.615	0.021141351
0.62	0.024886445
0.625	0.029264028
0.63	0.034375467
0.635	0.040337461
0.64	0.047284206
0.645	0.055369853
0.65	0.064771286
0.655	0.07569125
0.66	0.088361885
0.665	0.103048701
0.67	0.120055053
0.675	0.139727163
0.68	0.162459763
0.685	0.188702416
0.69	0.218966593
0.695	0.253833595
0.7	0.293963393
0.705	0.340104503
0.71	0.393104985
0.715	0.453924698
0.72	0.523648926
0.725	0.603503512
0.73	0.694871666
0.735	0.799312582
0.74	0.918582063
0.745	1.054655331
0.75	1.209752235
0.755	1.386365062
0.76	1.587289207
0.765	1.815656951
0.77	2.074974616
0.775	2.369163394
0.78	2.702604174
0.785	3.080186688
0.79	3.507363354
0.795	3.990208183
0.8	4.535481172
0.805	5.15069861
0.81	5.844209764
0.815	6.62528043
0.82	7.504183871
0.825	8.492299686
0.83	9.602221197
0.835	10.84787195
0.84	12.24463197
0.845	13.8094745
0.85	15.56111382
0.855	17.52016497
0.86	19.70931616
0.865	22.15351465
0.87	24.88016684
0.875	27.91935369
0.88	31.30406213
0.885	35.0704335
0.89	39.25803008
0.895	43.91012056
0.9	49.07398556
0.905	54.8012443
0.91	61.1482035
0.915	68.17622948
0.92	75.9521449
0.925	84.548651
0.93	94.04477672
0.935	104.5263558
0.94	116.0865331
0.945	128.8263016
0.95	142.8550703
0.955	158.2912665
0.96	175.2629703
0.965	193.9085862
0.97	214.3775501
0.975	236.8310747
0.98	261.4429333
0.985	288.4002841
0.99	317.9045355
0.995	350.1722532
1	385.4361114
1.005	423.9458873
1.01	465.9695011
1.015	511.794102
1.02	561.7272001
1.025	616.0978469
1.03	675.2578623
1.035	739.5831108
1.04	809.4748257
1.045	885.3609831
1.05	967.6977241
1.055	1056.970826
1.06	1153.697224
1.065	1258.426576
1.07	1371.742886
1.075	1494.266161
1.08	1626.654128
1.085	1769.603984
1.09	1923.854203
1.095	2090.186373
1.1	2269.427088
1.105	2462.449864
1.11	2670.177107
1.115	2893.582109
1.12	3133.691076
1.125	3391.585189
1.13	3668.402693
1.135	3965.341005
1.14	4283.65885
1.145	4624.678406
1.15	4989.78747
1.155	5380.441628
1.16	5798.16643
1.165	6244.55957
1.17	6721.293053
1.175	7230.115365
1.18	7772.853613
1.185	8351.41566
1.19	8967.792221
1.195	9624.05894
1.2	10322.37842
1.205	11065.00221
1.21	11854.27275
1.215	12692.62525
1.22	13582.58951
1.225	14526.79169
1.23	15527.95595
1.235	16588.90607
1.24	17712.56692
1.245	18901.9659
1.25	20160.23423
1.255	21490.60811
1.26	22896.42982
1.265	24381.14863
1.27	25948.32167
1.275	27601.61454
1.28	29344.80185
1.285	31181.76765
1.29	33116.50554
1.295	35153.11881
1.3	37295.82028
1.305	39548.932
1.31	41916.88474
1.315	44404.21739
1.32	47015.576
1.325	49755.71279
1.33	52629.48482
1.335	55641.85255
1.34	58797.87816
1.345	62102.72358
1.35	65561.64845
1.355	69180.00772
1.36	72963.24911
1.365	76916.9103
1.37	81046.61593
1.375	85358.07434
1.38	89857.07411
1.385	94549.48037
1.39	99441.23086
1.395	104538.3318
1.4	109846.8534
1.405	115372.9256
1.41	121122.7328
1.415	127102.5093
1.42	133318.5335
1.425	139777.1231
1.43	146484.6291
1.435	153447.43
1.44	160671.9256
1.445	168164.5313
1.45	175931.6712
1.455	183979.7717
1.46	192315.2552
1.465	200944.5324
1.47	209873.9961
1.475	219110.0137
1.48	228658.9198
1.485	238527.0094
1.49	248720.5297
1.495	259245.673
1.5	270108.5689
1.505	281315.277
1.51	292871.7783
1.515	304783.9682
1.52	317057.6483
1.525	329698.5185
1.53	342712.1695
1.535	356104.0745
1.54	369879.5817
1.545	384043.9063
1.55	398602.1231
1.555	413559.1583
1.56	428919.7824
1.565	444688.6024
1.57	460870.0545
1.575	477468.3968
1.58	494487.702
1.585	511931.8505
1.59	529804.5235
1.595	548109.1964
1.6	566849.132
1.605	586027.3743
1.61	605646.7425
1.615	625709.8247
1.62	646218.9727
1.625	667176.2959
1.63	688583.6567
1.635	710442.665
1.64	732754.6739
1.645	755520.7748
1.65	778741.7936
1.655	802418.2867
1.66	826550.5373
1.665	851138.5523
1.67	876182.0592
1.675	901680.5033
1.68	927633.0455
1.685	954038.5603
1.69	980895.6339
1.695	1008202.563
1.7	1035957.354
1.705	1064157.721
1.71	1092801.087
1.715	1121884.582
1.72	1151405.048
1.725	1181359.031
1.73	1211742.791
1.735	1242552.297
1.74	1273783.232
1.745	1305430.993
1.75	1337490.694
1.755	1369957.17
1.76	1402824.976
1.765	1436088.395
1.77	1469741.438
1.775	1503777.849
1.78	1538191.108
1.785	1572974.44
1.79	1608120.811
1.795	1643622.942
1.8	1679473.308
1.805	1715664.146
1.81	1752187.462
1.815	1789035.032
1.82	1826198.414
1.825	1863668.95
1.83	1901437.776
1.835	1939495.826
1.84	1977833.839
1.845	2016442.369
1.85	2055311.79
1.855	2094432.304
1.86	2133793.947
1.865	2173386.6
1.87	2213199.995
1.875	2253223.723
1.88	2293447.241
1.885	2333859.883
1.89	2374450.866
1.895	2415209.299
1.9	2456124.191
1.905	2497184.459
1.91	2538378.939
1.915	2579696.391
1.92	2621125.51
1.925	2662654.933
1.93	2704273.248
1.935	2745969.003
1.94	2787730.714
1.945	2829546.872
1.95	2871405.955
1.955	2913296.43
1.96	2955206.77
1.965	2997125.453
1.97	3039040.977
1.975	3080941.864
1.98	3122816.668
1.985	3164653.987
1.99	3206442.465
1.995	3248170.801
2	3289827.76
2.005	3331402.175
2.01	3372882.959
2.015	3414259.108
2.02	3455519.708
2.025	3496653.946
2.03	3537651.111
2.035	3578500.604
2.04	3619191.94
2.045	3659714.76
2.05	3700058.832
2.055	3740214.057
2.06	3780170.477
2.065	3819918.276
2.07	3859447.789
2.075	3898749.505
2.08	3937814.072
2.085	3976632.3
2.09	4015195.167
2.095	4053493.821
2.1	4091519.587
2.105	4129263.966
2.11	4166718.644
2.115	4203875.49
2.12	4240726.56
2.125	4277264.102
2.13	4313480.558
2.135	4349368.564
2.14	4384920.954
2.145	4420130.764
2.15	4454991.228
2.155	4489495.784
2.16	4523638.077
2.165	4557411.953
2.17	4590811.469
2.175	4623830.886
2.18	4656464.675
2.185	4688707.515
2.19	4720554.294
2.195	4752000.107
2.2	4783040.26
2.205	4813670.267
2.21	4843885.85
2.215	4873682.939
2.22	4903057.671
2.225	4932006.388
2.23	4960525.64
2.235	4988612.178
2.24	5016262.957
2.245	5043475.136
2.25	5070246.07
2.255	5096573.314
2.26	5122454.622
2.265	5147887.94
2.27	5172871.407
2.275	5197403.354
2.28	5221482.301
2.285	5245106.953
2.29	5268276.199
2.295	5290989.112
2.3	5313244.942
2.305	5335043.115
2.31	5356383.233
2.315	5377265.067
2.32	5397688.558
2.325	5417653.813
2.33	5437161.099
2.335	5456210.844
2.34	5474803.632
2.345	5492940.203
2.35	5510621.445
2.355	5527848.392
2.36	5544622.226
2.365	5560944.266
2.37	5576815.972
2.375	5592238.936
2.38	5607214.881
2.385	5621745.66
2.39	5635833.249
2.395	5649479.745
2.4	5662687.364
2.405	5675458.435
2.41	5687795.401
2.415	5699700.809
2.42	5711177.315
2.425	5722227.672
2.43	5732854.735
2.435	5743061.451
2.44	5752850.86
2.445	5762226.088
2.45	5771190.35
2.455	5779746.938
2.46	5787899.227
2.465	5795650.663
2.47	5803004.769
2.475	5809965.134
2.48	5816535.414
2.485	5822719.328
2.49	5828520.655
2.495	5833943.232
2.5	5838990.948
2.505	5843667.746
2.51	5847977.616
2.515	5851924.594
2.52	5855512.758
2.525	5858746.226
2.53	5861629.156
2.535	5864165.737
2.54	5866360.193
2.545	5868216.776
2.55	5869739.766
2.555	5870933.468
2.56	5871802.208
2.565	5872350.332
2.57	5872582.205
2.575	5872502.205
2.58	5872114.726
2.585	5871424.17
2.59	5870434.949
2.595	5869151.482
2.6	5867578.193
2.605	5865719.507
2.61	5863579.851
2.615	5861163.651
2.62	5858475.33
2.625	5855519.305
2.63	5852299.988
2.635	5848821.784
2.64	5845089.084
2.645	5841106.272
2.65	5836877.718
2.655	5832407.776
2.66	5827700.786
2.665	5822761.069
2.67	5817592.93
2.675	5812200.651
2.68	5806588.496
2.685	5800760.704
2.69	5794721.493
2.695	5788475.054
2.7	5782025.554
2.705	5775377.132
2.71	5768533.9
2.715	5761499.94
2.72	5754279.307
2.725	5746876.023
2.73	5739294.079
2.735	5731537.435
2.74	5723610.017
2.745	5715515.717
2.75	5707258.395
2.755	5698841.873
2.76	5690269.939
2.765	5681546.344
2.77	5672674.803
2.775	5663658.993
2.78	5654502.554
2.785	5645209.087
2.79	5635782.154
2.795	5626225.28
2.8	5616541.947
2.805	5606735.602
2.81	5596809.648
2.815	5586767.448
2.82	5576612.327
2.825	5566347.566
2.83	5555976.408
2.835	5545502.052
2.84	5534927.658
2.845	5524256.342
2.85	5513491.18
2.855	5502635.208
2.86	5491691.416
2.865	5480662.755
2.87	5469552.134
2.875	5458362.42
2.88	5447096.437
2.885	5435756.97
2.89	5424346.758
2.895	5412868.503
2.9	5401324.862
2.905	5389718.451
2.91	5378051.847
2.915	5366327.583
2.92	5354548.152
2.925	5342716.006
2.93	5330833.555
2.935	5318903.172
2.94	5306927.185
2.945	5294907.884
2.95	5282847.52
2.955	5270748.303
2.96	5258612.403
2.965	5246441.951
2.97	5234239.041
2.975	5222005.724
2.98	5209744.018
2.985	5197455.897
2.99	5185143.302
2.995	5172808.133
3	5160452.255
3.005	5148077.494
3.01	5135685.642
3.015	5123278.451
3.02	5110857.639
3.025	5098424.889
3.03	5085981.848
3.035	5073530.127
3.04	5061071.304
3.045	5048606.92
3.05	5036138.486
3.055	5023667.475
3.06	5011195.329
3.065	4998723.458
3.07	4986253.238
3.075	4973786.013
3.08	4961323.094
3.085	4948865.764
3.09	4936415.271
3.095	4923972.835
3.1	4911539.644
3.105	4899116.857
3.11	4886705.603
3.115	4874306.982
3.12	4861922.064
3.125	4849551.892
3.13	4837197.481
3.135	4824859.817
3.14	4812539.86
3.145	4800238.541
3.15	4787956.765
3.155	4775695.414
3.16	4763455.339
3.165	4751237.368
3.17	4739042.305
3.175	4726870.927
3.18	4714723.988
3.185	4702602.217
3.19	4690506.32
3.195	4678436.979
3.2	4666394.853
3.205	4654380.579
3.21	4642394.772
3.215	4630438.023
3.22	4618510.903
3.225	4606613.962
3.23	4594747.729
3.235	4582912.711
3.24	4571109.396
3.245	4559338.252
3.25	4547599.727
3.255	4535894.249
3.26	4524222.23
3.265	4512584.059
3.27	4500980.111
3.275	4489410.74
3.28	4477876.284
3.285	4466377.063
3.29	4454913.379
3.295	4443485.52
3.3	4432093.754
3.305	4420738.335
3.31	4409419.502
3.315	4398137.476
3.32	4386892.465
3.325	4375684.66
3.33	4364514.239
3.335	4353381.364
3.34	4342286.184
3.345	4331228.835
3.35	4320209.438
3.355	4309228.099
3.36	4298284.915
3.365	4287379.967
3.37	4276513.325
3.375	4265685.047
3.38	4254895.176
3.385	4244143.747
3.39	4233430.782
3.395	4222756.291
3.4	4212120.274
3.405	4201522.719
3.41	4190963.605
3.415	4180442.899
3.42	4169960.559
3.425	4159516.534
3.43	4149110.76
3.435	4138743.167
3.44	4128413.673
3.445	4118122.191
3.45	4107868.62
3.455	4097652.854
3.46	4087474.779
3.465	4077334.269
3.47	4067231.194
3.475	4057165.415
3.48	4047136.783
3.485	4037145.147
3.49	4027190.342
3.495	4017272.202
3.5	4007390.551
3.505	3997545.207
3.51	3987735.981
3.515	3977962.679
3.52	3968225.101
3.525	3958523.038
3.53	3948856.279
3.535	3939224.606
3.54	3929627.796
3.545	3920065.618
3.55	3910537.841
3.555	3901044.225
3.56	3891584.526
3.565	3882158.496
3.57	3872765.883
3.575	3863406.43
3.58	3854079.876
3.585	3844785.956
3.59	3835524.401
3.595	3826294.939
3.6	3817097.292
3.605	3807931.182
3.61	3798796.326
3.615	3789692.438
3.62	3780619.229
3.625	3771576.407
3.63	3762563.677
3.635	3753580.742
3.64	3744627.303
3.645	3735703.057
3.65	3726807.7
3.655	3717940.925
3.66	3709102.425
3.665	3700291.889
3.67	3691509.005
3.675	3682753.46
3.68	3674024.938
3.685	3665323.123
3.69	3656647.697
3.695	3647998.342
3.7	3639374.737
3.705	3630776.562
3.71	3622203.494
3.715	3613655.212
3.72	3605131.393
3.725	3596631.713
3.73	3588155.848
3.735	3579703.473
3.74	3571274.265
3.745	3562867.899
3.75	3554484.05
3.755	3546122.394
3.76	3537782.607
3.765	3529464.364
3.77	3521167.343
3.775	3512891.22
3.78	3504635.673
3.785	3496400.379
3.79	3488185.018
3.795	3479989.27
3.8	3471812.815
3.805	3463655.334
3.81	3455516.512
3.815	3447396.031
3.82	3439293.577
3.825	3431208.836
3.83	3423141.497
3.835	3415091.25
3.84	3407057.784
3.845	3399040.794
3.85	3391039.974
3.855	3383055.02
3.86	3375085.631
3.865	3367131.507
3.87	3359192.35
3.875	3351267.864
3.88	3343357.758
3.885	3335461.739
3.89	3327579.519
3.895	3319710.812
3.9	3311855.334
3.905	3304012.804
3.91	3296182.943
3.915	3288365.475
3.92	3280560.128
3.925	3272766.631
3.93	3264984.716
3.935	3257214.12
3.94	3249454.58
3.945	3241705.839
3.95	3233967.641
3.955	3226239.734
3.96	3218521.869
3.965	3210813.801
3.97	3203115.288
3.975	3195426.09
3.98	3187745.974
3.985	3180074.706
3.99	3172412.06
3.995	3164757.81
4	3157111.735
4.005	3225494.341
4.01	3214740.257
4.015	3204024.568
4.02	3193347.129
4.025	3182707.796
4.03	3172106.423
4.035	3161542.867
4.04	3151016.985
4.045	3140528.634
4.05	3130077.673
4.055	3119663.96
4.06	3109287.354
4.065	3098947.715
4.07	3088644.903
4.075	3078378.779
4.08	3068149.205
4.085	3057956.042
4.09	3047799.152
4.095	3037678.399
4.1	3027593.647
4.105	3017544.759
4.11	3007531.6
4.115	2997554.035
4.12	2987611.931
4.125	2977705.153
4.13	2967833.567
4.135	2957997.043
4.14	2948195.446
4.145	2938428.647
4.15	2928696.512
4.155	2918998.913
4.16	2909335.719
4.165	2899706.8
4.17	2890112.027
4.175	2880551.273
4.18	2871024.408
4.185	2861531.305
4.19	2852071.838
4.195	2842645.879
4.2	2833253.303
4.205	2823893.985
4.21	2814567.799
4.215	2805274.621
4.22	2796014.326
4.225	2786786.792
4.23	2777591.896
4.235	2768429.514
4.24	2759299.524
4.245	2750201.806
4.25	2741136.238
4.255	2732102.699
4.26	2723101.07
4.265	2714131.23
4.27	2705193.06
4.275	2696286.443
4.28	2687411.259
4.285	2678567.39
4.29	2669754.72
4.295	2660973.131
4.3	2652222.508
4.305	2643502.734
4.31	2634813.693
4.315	2626155.271
4.32	2617527.354
4.325	2608929.826
4.33	2600362.575
4.335	2591825.487
4.34	2583318.449
4.345	2574841.35
4.35	2566394.076
4.355	2557976.518
4.36	2549588.563
4.365	2541230.101
4.37	2532901.023
4.375	2524601.218
4.38	2516330.577
4.385	2508088.991
4.39	2499876.352
4.395	2491692.553
4.4	2483537.484
4.405	2475411.04
4.41	2467313.113
4.415	2459243.597
4.42	2451202.387
4.425	2443189.377
4.43	2435204.462
4.435	2427247.536
4.44	2419318.497
4.445	2411417.24
4.45	2403543.662
4.455	2395697.66
4.46	2387879.131
4.465	2380087.973
4.47	2372324.084
4.475	2364587.364
4.48	2356877.71
4.485	2349195.022
4.49	2341539.2
4.495	2333910.145
4.5	2326307.757
4.505	2318731.936
4.51	2311182.585
4.515	2303659.604
4.52	2296162.897
4.525	2288692.365
4.53	2281247.912
4.535	2273829.44
4.54	2266436.854
4.545	2259070.058
4.55	2251728.955
4.555	2244413.451
4.56	2237123.451
4.565	2229858.86
4.57	2222619.584
4.575	2215405.53
4.58	2208216.604
4.585	2201052.712
4.59	2193913.764
4.595	2186799.665
4.6	2179710.325
4.605	2172645.652
4.61	2165605.554
4.615	2158589.94
4.62	2151598.721
4.625	2144631.806
4.63	2137689.105
4.635	2130770.529
4.64	2123875.988
4.645	2117005.394
4.65	2110158.659
4.655	2103335.694
4.66	2096536.412
4.665	2089760.726
4.67	2083008.547
4.675	2076279.791
4.68	2069574.369
4.685	2062892.197
4.69	2056233.189
4.695	2049597.258
4.7	2042984.321
4.705	2036394.293
4.71	2029827.088
4.715	2023282.624
4.72	2016760.816
4.725	2010261.581
4.73	2003784.837
4.735	1997330.499
4.74	1990898.486
4.745	1984488.716
4.75	1978101.107
4.755	1971735.578
4.76	1965392.046
4.765	1959070.433
4.77	1952770.656
4.775	1946492.636
4.78	1940236.293
4.785	1934001.548
4.79	1927788.32
4.795	1921596.532
4.8	1915426.104
4.805	1909276.958
4.81	1903149.017
4.815	1897042.201
4.82	1890956.435
4.825	1884891.64
4.83	1878847.74
4.835	1872824.658
4.84	1866822.318
4.845	1860840.644
4.85	1854879.561
4.855	1848938.993
4.86	1843018.865
4.865	1837119.102
4.87	1831239.629
4.875	1825380.373
4.88	1819541.26
4.885	1813722.215
4.89	1807923.166
4.895	1802144.039
4.9	1796384.762
4.905	1790645.261
4.91	1784925.466
4.915	1779225.304
4.92	1773544.703
4.925	1767883.591
4.93	1762241.899
4.935	1756619.554
4.94	1751016.486
4.945	1745432.626
4.95	1739867.902
4.955	1734322.245
4.96	1728795.587
4.965	1723287.856
4.97	1717798.985
4.975	1712328.904
4.98	1706877.546
4.985	1701444.842
4.99	1696030.725
4.995	1690635.125
5	1685257.977
5.005	1679899.213
5.01	1674558.766
5.015	1669236.57
5.02	1663932.558
5.025	1658646.664
5.03	1653378.822
5.035	1648128.967
5.04	1642897.033
5.045	1637682.955
5.05	1632486.669
5.055	1627308.109
5.06	1622147.211
5.065	1617003.912
5.07	1611878.148
5.075	1606769.854
5.08	1601678.967
5.085	1596605.425
5.09	1591549.164
5.095	1586510.122
5.1	1581488.237
5.105	1576483.445
5.11	1571495.686
5.115	1566524.898
5.12	1561571.018
5.125	1556633.987
5.13	1551713.742
5.135	1546810.224
5.14	1541923.371
5.145	1537053.123
5.15	1532199.421
5.155	1527362.204
5.16	1522541.414
5.165	1517736.989
5.17	1512948.872
5.175	1508177.004
5.18	1503421.325
5.185	1498681.777
5.19	1493958.303
5.195	1489250.843
5.2	1484559.341
5.205	1479883.738
5.21	1475223.977
5.215	1470580.002
5.22	1465951.754
5.225	1461339.178
5.23	1456742.217
5.235	1452160.815
5.24	1447594.915
5.245	1443044.462
5.25	1438509.4
5.255	1433989.674
5.26	1429485.228
5.265	1424996.008
5.27	1420521.958
5.275	1416063.025
5.28	1411619.153
5.285	1407190.288
5.29	1402776.378
5.295	1398377.366
5.3	1393993.201
5.305	1389623.829
5.31	1385269.197
5.315	1380929.251
5.32	1376603.94
5.325	1372293.21
5.33	1367997.008
5.335	1363715.284
5.34	1359447.985
5.345	1355195.059
5.35	1350956.455
5.355	1346732.121
5.36	1342522.006
5.365	1338326.059
5.37	1334144.23
5.375	1329976.467
5.38	1325822.721
5.385	1321682.941
5.39	1317557.077
5.395	1313445.08
5.4	1309346.899
5.405	1305262.485
5.41	1301191.789
5.415	1297134.762
5.42	1293091.355
5.425	1289061.52
5.43	1285045.207
5.435	1281042.368
5.44	1277052.956
5.445	1273076.922
5.45	1269114.218
5.455	1265164.798
5.46	1261228.612
5.465	1257305.615
5.47	1253395.759
5.475	1249498.997
5.48	1245615.283
5.485	1241744.569
5.49	1237886.81
5.495	1234041.96
5.5	1230209.971
5.505	1226390.799
5.51	1222584.398
5.515	1218790.722
5.52	1215009.727
5.525	1211241.365
5.53	1207485.594
5.535	1203742.368
5.54	1200011.642
5.545	1196293.371
5.55	1192587.513
5.555	1188894.021
5.56	1185212.853
5.565	1181543.965
5.57	1177887.313
5.575	1174242.852
5.58	1170610.541
5.585	1166990.336
5.59	1163382.194
5.595	1159786.072
5.6	1156201.927
5.605	1152629.717
5.61	1149069.4
5.615	1145520.933
5.62	1141984.274
5.625	1138459.381
5.63	1134946.213
5.635	1131444.729
5.64	1127954.885
5.645	1124476.643
5.65	1121009.959
5.655	1117554.794
5.66	1114111.107
5.665	1110678.856
5.67	1107258.002
5.675	1103848.503
5.68	1100450.321
5.685	1097063.414
5.69	1093687.744
5.695	1090323.269
5.7	1086969.951
5.705	1083627.751
5.71	1080296.628
5.715	1076976.544
5.72	1073667.459
5.725	1070369.336
5.73	1067082.134
5.735	1063805.816
5.74	1060540.344
5.745	1057285.678
5.75	1054041.781
5.755	1050808.614
5.76	1047586.141
5.765	1044374.322
5.77	1041173.121
5.775	1037982.501
5.78	1034802.423
5.785	1031632.851
5.79	1028473.747
5.795	1025325.076
5.8	1022186.799
5.805	1019058.881
5.81	1015941.285
5.815	1012833.975
5.82	1009736.914
5.825	1006650.066
5.83	1003573.397
5.835	1000506.868
5.84	997450.4462
5.845	994404.0946
5.85	991367.7781
5.855	988341.4615
5.86	985325.1097
5.865	982318.6875
5.87	979322.1603
5.875	976335.4931
5.88	973358.6515
5.885	970391.601
5.89	967434.3071
5.895	964486.7356
5.9	961548.8525
5.905	958620.6238
5.91	955702.0156
5.915	952792.9943
5.92	949893.5261
5.925	947003.5777
5.93	944123.1157
5.935	941252.1068
5.94	938390.518
5.945	935538.3163
5.95	932695.4688
5.955	929861.9428
5.96	927037.7057
5.965	924222.725
5.97	921416.9683
5.975	918620.4033
5.98	915832.998
5.985	913054.7203
5.99	910285.5383
5.995	907525.4203
6	904774.3345
6.005	902032.2495
6.01	899299.1338
6.015	896574.9561
6.02	893859.6851
6.025	891153.2899
6.03	888455.7395
6.035	885767.003
6.04	883087.0496
6.045	880415.8488
6.05	877753.37
6.055	875099.5829
6.06	872454.4571
6.065	869817.9625
6.07	867190.0691
6.075	864570.7467
6.08	861959.9658
6.085	859357.6964
6.09	856763.9089
6.095	854178.574
6.1	851601.6621
6.105	849033.1439
6.11	846472.9904
6.115	843921.1723
6.12	841377.6607
6.125	838842.4268
6.13	836315.4418
6.135	833796.6771
6.14	831286.104
6.145	828783.6942
6.15	826289.4192
6.155	823803.251
6.16	821325.1613
6.165	818855.1221
6.17	816393.1055
6.175	813939.0836
6.18	811493.0288
6.185	809054.9135
6.19	806624.71
6.195	804202.391
